File: Lab/Characterization/Linear_Sweep_Voltammetry/002/LSV_CU2O 002_0 TO -0,6V_light.DTA
EXPLAIN
TAG	LSV
TITLE	LABEL	Linear Sweep Voltammetry	Test &Identifier
DATE	LABEL	6.4.2017	Date
TIME	LABEL	11:11:00	Time
NOTES	NOTES	2	&Notes...
	solar sim

PSTAT	PSTAT	REF3000-31107	Potentiostat
VINIT	POTEN	0,00000E+000	F	&Initial E (V)
VFINAL	POTEN	-6,00000E-001	F	&Final E (V)
SCANRATE	QUANT	9,99998E+000	&Scan Rate (mV/s)
STEPSIZE	QUANT	2,00000E+000	St&ep Size (mV)
IMODE	SELECTOR	1	I/E Range &Mode
IRANGE	QUANT	1,00000E+001	&Max Current (mA)
AREA	QUANT	1,00000E+000	Electrode &Area (cm^2)
ELECTRODETYPE	SELECTOR	1	Electrode Type
STRIPPING	TOGGLE	F	Used for Stripping
POLARITY	TOGGLE	F	Signal Polarity
CONDIT	TWOPARAM	F	3,00000E+001	0,00000E+000	Conditionin&g	Time(s)	E(V)
DELAY	TWOPARAM	F	3,00000E+001	0,00000E+000	Init. De&lay	Time(s)	Stab.(mV/s)
EQDELAY	QUANT	5,00000E+000	Equil. &Time (s)
IRCOMP	SELECTOR	0	IRCom&p
PFCOR	QUANT	5,00000E+001	PF Corr. (ohm)
SAMPLINGMODE	SELECTOR	1	Sampling &Mode
EOC	QUANT	0	Open Circuit (V)
PSTATMODEL	IQUANT	5	Pstat Model
PSTATSECTION	LABEL	REF3000-31107	Pstat Section
PSTATSERIALNO	LABEL	31107	Pstat Serial Number
CTRLMODE	IQUANT	1	Control Mode
ELECTROMETER	IQUANT	0	RE=0 or CS=1
IESTAB	IQUANT	2	I/E Stability
CASPEED	IQUANT	4	Control Amp Speed
CONVENTION	IQUANT	1	Current Convention
ICHRANGE	IQUANT	2	Ich Range
ICHRANGEMODE	TOGGLE	F	Ich Auto Range
ICHOFFSETENABLE	TOGGLE	F	Ich Offset Enable
ICHOFFSET	QUANT	0	Ich Offset (V)
ICHFILTER	IQUANT	3	Ich Filter
VCHRANGE	IQUANT	2	Vch Range
VCHRANGEMODE	TOGGLE	T	Vch Auto Range
VCHOFFSETENABLE	TOGGLE	F	Vch Offset Enable
VCHOFFSET	QUANT	0	Vch Offset (V)
VCHFILTER	IQUANT	3	Vch Filter
ACHRANGE	IQUANT	2	Ach Range
ACHOFFSETENABLE	TOGGLE	F	Ach Offset Enable
ACHOFFSET	QUANT	0	Ach Offset (V)
ACHFILTER	IQUANT	1	Ach Filter
IERANGELOWERLIMIT	IQUANT	2	I/E Range Lower Limit
IERANGEMODE	TOGGLE	F	I/E AutoRange
IERANGE	IQUANT	10	I/E Range
POSFEEDENABLE	TOGGLE	F	Positive Feedback IR Comp
POSFEEDRESISTANCE	QUANT	0	Positive Feedback Resistance (ohm)
ACHSELECT	IQUANT	1	Ach Select
CABLEID	IQUANT	14	Cable ID
DCCALDATE	LABEL	18.5.2016	DC Calibration Date
ACCALDATE	LABEL	18.5.2016	AC Calibration Date
THERMOSELECT	IQUANT	1	Thermo Select
FRAMEWORKVERSION	QUANT	7,03	Framework Version
INSTRUMENTVERSION	LABEL	4.15	Instrument Version
COMPLIANCEVOLTAGE	IQUANT	0	Compliance Voltage
CURVE	TABLE	301
	Pt	T	Vf	Im	Vu	Sig	Ach	IERange	Over	Cycle
	#	s	V vs. Ref.	A	V	V	V	#	bits	#
	0	0,2	3,77875E-004	3,54178E-005	0,00000E+000	-2,98023E-008	-1,61106E-004	10	...........	0
	3	0,8	-5,64696E-003	2,56163E-005	0,00000E+000	-6,00001E-003	-1,68306E-004	10	...........	0
	6	1,4	-1,16411E-002	1,80901E-005	0,00000E+000	-1,20000E-002	-1,72406E-004	10	...........	0
	9	2	-1,76370E-002	1,12019E-005	0,00000E+000	-1,80000E-002	-1,69956E-004	10	...........	0
	12	2,6	-2,36312E-002	6,71084E-006	0,00000E+000	-2,40000E-002	-1,59606E-004	10	...........	0
	15	3,2	-2,96410E-002	2,87279E-006	0,00000E+000	-3,00000E-002	-1,67606E-004	10	...........	0
	18	3,8	-3,56291E-002	6,54384E-006	0,00000E+000	-3,60000E-002	-1,63456E-004	10	...........	0
	21	4,4	-4,16216E-002	1,39735E-006	0,00000E+000	-4,20000E-002	-1,67006E-004	10	...........	0
	24	5	-4,76223E-002	-3,36950E-006	0,00000E+000	-4,80000E-002	-1,75756E-004	10	...........	0
	27	5,6	-5,36174E-002	-5,50242E-006	0,00000E+000	-5,40000E-002	-1,67656E-004	10	...........	0
	30	6,2	-5,96162E-002	-7,81940E-006	0,00000E+000	-6,00000E-002	-1,57806E-004	10	...........	0
	33	6,8	-6,56160E-002	-1,01228E-005	0,00000E+000	-6,60000E-002	-1,63906E-004	10	...........	0
	36	7,4	-7,16081E-002	-1,19162E-005	0,00000E+000	-7,20000E-002	-1,67956E-004	10	...........	0
	39	8	-7,76062E-002	-1,31189E-005	0,00000E+000	-7,80000E-002	-1,64106E-004	10	...........	0
	42	8,6	-8,35969E-002	-1,38470E-005	0,00000E+000	-8,40000E-002	-1,70956E-004	10	...........	0
	45	9,2	-8,95972E-002	-1,49288E-005	0,00000E+000	-9,00000E-002	-1,77406E-004	10	...........	0
	48	9,8	-9,55930E-002	-1,61550E-005	0,00000E+000	-9,60000E-002	-1,69656E-004	10	...........	0
	51	10,4	-1,01585E-001	-1,73541E-005	0,00000E+000	-1,02000E-001	-1,67456E-004	10	...........	0
	54	11	-1,07584E-001	-1,83526E-005	0,00000E+000	-1,08000E-001	-1,76606E-004	10	...........	0
	57	11,6	-1,13579E-001	-1,90798E-005	0,00000E+000	-1,14000E-001	-1,67656E-004	10	...........	0
	60	12,2	-1,19575E-001	-1,95623E-005	0,00000E+000	-1,20000E-001	-1,68056E-004	10	...........	0
	63	12,8	-1,25566E-001	-2,03963E-005	0,00000E+000	-1,26000E-001	-1,73556E-004	10	...........	0
	66	13,4	-1,31557E-001	-2,10492E-005	0,00000E+000	-1,32000E-001	-1,61156E-004	10	...........	0
	69	14	-1,37559E-001	-2,15156E-005	0,00000E+000	-1,38000E-001	-1,71406E-004	10	...........	0
	72	14,6	-1,43552E-001	-2,20126E-005	0,00000E+000	-1,44000E-001	-1,64156E-004	10	...........	0
	75	15,2	-1,49546E-001	-2,27358E-005	0,00000E+000	-1,50000E-001	-1,72706E-004	10	...........	0
	78	15,8	-1,55545E-001	-2,32920E-005	0,00000E+000	-1,56000E-001	-1,70656E-004	10	...........	0
	81	16,4	-1,61542E-001	-2,37534E-005	0,00000E+000	-1,62000E-001	-1,62556E-004	10	...........	0
	84	17	-1,67539E-001	-2,44525E-005	0,00000E+000	-1,68000E-001	-1,58456E-004	10	...........	0
	87	17,6	-1,73537E-001	-2,50137E-005	0,00000E+000	-1,74000E-001	-1,55856E-004	10	...........	0
	90	18,2	-1,79534E-001	-2,56461E-005	0,00000E+000	-1,80000E-001	-1,56906E-004	10	...........	0
	93	18,8	-1,85531E-001	-2,63707E-005	0,00000E+000	-1,86000E-001	-1,54956E-004	10	...........	0
	96	19,4	-1,91530E-001	-2,72213E-005	0,00000E+000	-1,92000E-001	-1,47906E-004	10	...........	0
	99	20	-1,97523E-001	-2,80864E-005	0,00000E+000	-1,98000E-001	-1,54506E-004	10	...........	0
	102	20,6	-2,03517E-001	-2,89460E-005	0,00000E+000	-2,04000E-001	-1,60906E-004	10	...........	0
	105	21,2	-2,09514E-001	-2,94500E-005	0,00000E+000	-2,10000E-001	-1,62356E-004	10	...........	0
	108	21,8	-2,15506E-001	-2,31566E-005	0,00000E+000	-2,16000E-001	-1,61656E-004	10	...........	0
	111	22,4	-2,21503E-001	-2,15196E-005	0,00000E+000	-2,22000E-001	-1,60356E-004	10	...........	0
	114	23	-2,27500E-001	-2,12674E-005	0,00000E+000	-2,28000E-001	-1,63506E-004	10	...........	0
	117	23,6	-2,33493E-001	-2,12363E-005	0,00000E+000	-2,34000E-001	-1,57256E-004	10	...........	0
	120	24,2	-2,39485E-001	-2,11054E-005	0,00000E+000	-2,40000E-001	-1,64406E-004	10	...........	0
	123	24,8	-2,45482E-001	-2,11721E-005	0,00000E+000	-2,46000E-001	-1,68256E-004	10	...........	0
	126	25,4	-2,51469E-001	-3,45524E-005	0,00000E+000	-2,52000E-001	-1,69206E-004	10	...........	0
	129	26	-2,57470E-001	-3,53021E-005	0,00000E+000	-2,58000E-001	-1,68206E-004	10	...........	0
	132	26,6	-2,63464E-001	-3,66888E-005	0,00000E+000	-2,64000E-001	-1,62406E-004	10	...........	0
	135	27,2	-2,69470E-001	-3,73663E-005	0,00000E+000	-2,70000E-001	-1,67706E-004	10	...........	0
	138	27,8	-2,75445E-001	-3,80950E-005	0,00000E+000	-2,76000E-001	-1,72256E-004	10	...........	0
	141	28,4	-2,81471E-001	-3,92741E-005	0,00000E+000	-2,82000E-001	-1,68306E-004	10	...........	0
	144	29	-2,87423E-001	-4,07957E-005	0,00000E+000	-2,88000E-001	-1,55956E-004	10	...........	0
	147	29,6	-2,93491E-001	-2,93196E-005	0,00000E+000	-2,94000E-001	-1,64356E-004	10	...........	0
	150	30,2	-2,99447E-001	-2,54294E-005	0,00000E+000	-3,00000E-001	-1,56506E-004	10	...........	0
	153	30,8	-3,05456E-001	-2,55799E-005	0,00000E+000	-3,06000E-001	-1,61806E-004	10	...........	0
	156	31,4	-3,11400E-001	-2,56807E-005	0,00000E+000	-3,12000E-001	-1,58206E-004	10	...........	0
	159	32	-3,17411E-001	-5,38384E-005	0,00000E+000	-3,18000E-001	-1,65606E-004	10	...........	0
	162	32,6	-3,23409E-001	-5,27191E-005	0,00000E+000	-3,24000E-001	-1,62306E-004	10	...........	0
	165	33,2	-3,29410E-001	-5,30571E-005	0,00000E+000	-3,30000E-001	-1,63856E-004	10	...........	0
	168	33,8	-3,35396E-001	-5,36343E-005	0,00000E+000	-3,36000E-001	-1,60256E-004	10	...........	0
	171	34,4	-3,41396E-001	-5,50661E-005	0,00000E+000	-3,42000E-001	-1,68656E-004	10	...........	0
	174	35	-3,47413E-001	-5,68635E-005	0,00000E+000	-3,48000E-001	-1,49556E-004	10	...........	0
	177	35,6	-3,53405E-001	-5,85862E-005	0,00000E+000	-3,54000E-001	-1,53406E-004	10	...........	0
	180	36,2	-3,59390E-001	-6,09228E-005	0,00000E+000	-3,60000E-001	-1,65156E-004	10	...........	0
	183	36,8	-3,65369E-001	-6,28616E-005	0,00000E+000	-3,66000E-001	-1,62906E-004	10	...........	0
	186	37,4	-3,71390E-001	-6,52578E-005	0,00000E+000	-3,72000E-001	-1,64506E-004	10	...........	0
	189	38	-3,77388E-001	-6,79449E-005	0,00000E+000	-3,78000E-001	-1,63506E-004	10	...........	0
	192	38,6	-3,83395E-001	-7,02383E-005	0,00000E+000	-3,84000E-001	-1,72556E-004	10	...........	0
	195	39,2	-3,89368E-001	-7,31130E-005	0,00000E+000	-3,90000E-001	-1,64906E-004	10	...........	0
	198	39,8	-3,95392E-001	-7,62168E-005	0,00000E+000	-3,96000E-001	-1,58006E-004	10	...........	0
	201	40,4	-4,01373E-001	-7,92580E-005	0,00000E+000	-4,02000E-001	-1,55806E-004	10	...........	0
	204	41	-4,07381E-001	-8,26045E-005	0,00000E+000	-4,08000E-001	-1,60056E-004	10	...........	0
	207	41,6	-4,13320E-001	-8,60344E-005	0,00000E+000	-4,14000E-001	-1,58956E-004	10	...........	0
	210	42,2	-4,19362E-001	-8,97365E-005	0,00000E+000	-4,20000E-001	-1,55906E-004	10	...........	0
	213	42,8	-4,25339E-001	-9,33278E-005	0,00000E+000	-4,26000E-001	-1,65056E-004	10	...........	0
	216	43,4	-4,31349E-001	-9,75460E-005	0,00000E+000	-4,32000E-001	-1,68606E-004	10	...........	0
	219	44	-4,37310E-001	-1,01699E-004	0,00000E+000	-4,38000E-001	-1,52606E-004	10	...........	0
	222	44,6	-4,43355E-001	-1,06158E-004	0,00000E+000	-4,44000E-001	-1,61606E-004	10	...........	0
	225	45,2	-4,49326E-001	-1,10086E-004	0,00000E+000	-4,50000E-001	-1,59406E-004	10	...........	0
	228	45,8	-4,55336E-001	-1,14238E-004	0,00000E+000	-4,56000E-001	-1,67756E-004	10	...........	0
	231	46,4	-4,61287E-001	-1,18309E-004	0,00000E+000	-4,62000E-001	-1,51256E-004	10	...........	0
	234	47	-4,67343E-001	-1,22606E-004	0,00000E+000	-4,68000E-001	-1,52156E-004	10	...........	0
	237	47,6	-4,73230E-001	-1,27065E-004	0,00000E+000	-4,74000E-001	-1,62406E-004	10	...........	0
	240	48,2	-4,79316E-001	-1,32341E-004	0,00000E+000	-4,80000E-001	-1,64206E-004	10	...........	0
	243	48,8	-4,85306E-001	-1,37620E-004	0,00000E+000	-4,86000E-001	-1,61906E-004	10	...........	0
	246	49,4	-4,91325E-001	-1,41936E-004	0,00000E+000	-4,92000E-001	-1,56056E-004	10	...........	0
	249	50	-4,97242E-001	-1,48130E-004	0,00000E+000	-4,98000E-001	-1,54606E-004	10	...........	0
	252	50,6	-5,03306E-001	-1,51646E-004	0,00000E+000	-5,04000E-001	-1,56456E-004	10	...........	0
	255	51,2	-5,09288E-001	-1,57704E-004	0,00000E+000	-5,10000E-001	-1,58956E-004	10	...........	0
	258	51,8	-5,15291E-001	-1,62715E-004	0,00000E+000	-5,16000E-001	-1,57906E-004	10	...........	0
	261	52,4	-5,21199E-001	-1,69454E-004	0,00000E+000	-5,22000E-001	-1,50156E-004	10	...........	0
	264	53	-5,27258E-001	-1,73805E-004	0,00000E+000	-5,28000E-001	-1,57756E-004	10	...........	0
	267	53,6	-5,33239E-001	-1,79505E-004	0,00000E+000	-5,34000E-001	-1,63456E-004	10	...........	0
	270	54,2	-5,39267E-001	-1,85009E-004	0,00000E+000	-5,40000E-001	-1,54906E-004	10	...........	0
	273	54,8	-5,45169E-001	-1,91420E-004	0,00000E+000	-5,46000E-001	-1,70556E-004	10	...........	0
	276	55,4	-5,51231E-001	-1,97628E-004	0,00000E+000	-5,52000E-001	-1,70956E-004	10	...........	0
	279	56	-5,57231E-001	-2,03793E-004	0,00000E+000	-5,58000E-001	-1,52506E-004	10	...........	0
	282	56,6	-5,63243E-001	-2,09684E-004	0,00000E+000	-5,64000E-001	-1,68856E-004	10	...........	0
	285	57,2	-5,69164E-001	-2,15862E-004	0,00000E+000	-5,70000E-001	-1,71906E-004	10	...........	0
	288	57,8	-5,75272E-001	-2,23876E-004	0,00000E+000	-5,76000E-001	-1,70306E-004	10	...........	0
	291	58,4	-5,81201E-001	-2,30014E-004	0,00000E+000	-5,82000E-001	-1,78906E-004	10	...........	0
	294	59	-5,87237E-001	-2,37312E-004	0,00000E+000	-5,88000E-001	-1,67306E-004	10	...........	0
	297	59,6	-5,93147E-001	-2,45541E-004	0,00000E+000	-5,94000E-001	-1,76956E-004	10	...........	0
	300	60,2	-5,99247E-001	-2,50639E-004	0,00000E+000	-6,00000E-001	-1,59156E-004	10	...........	0