File: Lab/Characterization/Linear_Sweep_Voltammetry/002/LSV_CU2O 002_0 TO -1V_light on.DTA
EXPLAIN
TAG	LSV
TITLE	LABEL	Linear Sweep Voltammetry	Test &Identifier
DATE	LABEL	6.4.2017	Date
TIME	LABEL	11:21:43	Time
NOTES	NOTES	2	&Notes...
	solar sim

PSTAT	PSTAT	REF3000-31107	Potentiostat
VINIT	POTEN	0,00000E+000	F	&Initial E (V)
VFINAL	POTEN	-1,00000E+000	F	&Final E (V)
SCANRATE	QUANT	9,99998E+000	&Scan Rate (mV/s)
STEPSIZE	QUANT	2,00000E+000	St&ep Size (mV)
IMODE	SELECTOR	1	I/E Range &Mode
IRANGE	QUANT	1,00000E+001	&Max Current (mA)
AREA	QUANT	1,00000E+000	Electrode &Area (cm^2)
ELECTRODETYPE	SELECTOR	1	Electrode Type
STRIPPING	TOGGLE	F	Used for Stripping
POLARITY	TOGGLE	F	Signal Polarity
CONDIT	TWOPARAM	F	3,00000E+001	0,00000E+000	Conditionin&g	Time(s)	E(V)
DELAY	TWOPARAM	F	3,00000E+001	0,00000E+000	Init. De&lay	Time(s)	Stab.(mV/s)
EQDELAY	QUANT	5,00000E+000	Equil. &Time (s)
IRCOMP	SELECTOR	0	IRCom&p
PFCOR	QUANT	5,00000E+001	PF Corr. (ohm)
SAMPLINGMODE	SELECTOR	1	Sampling &Mode
EOC	QUANT	0	Open Circuit (V)
PSTATMODEL	IQUANT	5	Pstat Model
PSTATSECTION	LABEL	REF3000-31107	Pstat Section
PSTATSERIALNO	LABEL	31107	Pstat Serial Number
CTRLMODE	IQUANT	1	Control Mode
ELECTROMETER	IQUANT	0	RE=0 or CS=1
IESTAB	IQUANT	2	I/E Stability
CASPEED	IQUANT	4	Control Amp Speed
CONVENTION	IQUANT	1	Current Convention
ICHRANGE	IQUANT	2	Ich Range
ICHRANGEMODE	TOGGLE	F	Ich Auto Range
ICHOFFSETENABLE	TOGGLE	F	Ich Offset Enable
ICHOFFSET	QUANT	0	Ich Offset (V)
ICHFILTER	IQUANT	3	Ich Filter
VCHRANGE	IQUANT	2	Vch Range
VCHRANGEMODE	TOGGLE	T	Vch Auto Range
VCHOFFSETENABLE	TOGGLE	F	Vch Offset Enable
VCHOFFSET	QUANT	0	Vch Offset (V)
VCHFILTER	IQUANT	3	Vch Filter
ACHRANGE	IQUANT	2	Ach Range
ACHOFFSETENABLE	TOGGLE	F	Ach Offset Enable
ACHOFFSET	QUANT	0	Ach Offset (V)
ACHFILTER	IQUANT	1	Ach Filter
IERANGELOWERLIMIT	IQUANT	2	I/E Range Lower Limit
IERANGEMODE	TOGGLE	F	I/E AutoRange
IERANGE	IQUANT	10	I/E Range
POSFEEDENABLE	TOGGLE	F	Positive Feedback IR Comp
POSFEEDRESISTANCE	QUANT	0	Positive Feedback Resistance (ohm)
ACHSELECT	IQUANT	1	Ach Select
CABLEID	IQUANT	14	Cable ID
DCCALDATE	LABEL	18.5.2016	DC Calibration Date
ACCALDATE	LABEL	18.5.2016	AC Calibration Date
THERMOSELECT	IQUANT	1	Thermo Select
FRAMEWORKVERSION	QUANT	7,03	Framework Version
INSTRUMENTVERSION	LABEL	4.15	Instrument Version
COMPLIANCEVOLTAGE	IQUANT	0	Compliance Voltage
CURVE	TABLE	501
	Pt	T	Vf	Im	Vu	Sig	Ach	IERange	Over	Cycle
	#	s	V vs. Ref.	A	V	V	V	#	bits	#
	0	0,2	4,17125E-004	5,26527E-005	0,00000E+000	0,00000E+000	-2,49656E-004	10	...........	0
	5	1,2	-9,57688E-003	3,54534E-005	0,00000E+000	-1,00000E-002	-2,56706E-004	10	...........	0
	10	2,2	-1,95691E-002	2,37216E-005	0,00000E+000	-2,00000E-002	-2,62056E-004	10	...........	0
	15	3,2	-2,95742E-002	1,52295E-005	0,00000E+000	-3,00000E-002	-2,71056E-004	10	...........	0
	20	4,2	-3,95655E-002	4,55335E-006	0,00000E+000	-4,00000E-002	-2,57256E-004	10	...........	0
	25	5,2	-4,95557E-002	-9,94352E-007	0,00000E+000	-5,00000E-002	-2,71106E-004	10	...........	0
	30	6,2	-5,95562E-002	-9,07618E-006	0,00000E+000	-6,00000E-002	-2,52306E-004	10	...........	0
	35	7,2	-6,95456E-002	-1,34509E-005	0,00000E+000	-7,00000E-002	-2,64506E-004	10	...........	0
	40	8,2	-7,95406E-002	-1,62468E-005	0,00000E+000	-8,00000E-002	-2,71906E-004	10	...........	0
	45	9,2	-8,95280E-002	-1,67944E-005	0,00000E+000	-9,00000E-002	-2,73106E-004	10	...........	0
	50	10,2	-9,95103E-002	-1,73892E-005	0,00000E+000	-1,00000E-001	-2,68306E-004	10	...........	0
	55	11,2	-1,09512E-001	-1,94805E-005	0,00000E+000	-1,10000E-001	-2,61706E-004	10	...........	0
	60	12,2	-1,19505E-001	-2,00658E-005	0,00000E+000	-1,20000E-001	-2,57806E-004	10	...........	0
	65	13,2	-1,29496E-001	-2,04504E-005	0,00000E+000	-1,30000E-001	-2,60656E-004	10	...........	0
	70	14,2	-1,39485E-001	-2,01395E-005	0,00000E+000	-1,40000E-001	-2,63256E-004	10	...........	0
	75	15,2	-1,49480E-001	-2,00452E-005	0,00000E+000	-1,50000E-001	-2,61906E-004	10	...........	0
	80	16,2	-1,59467E-001	-2,05076E-005	0,00000E+000	-1,60000E-001	-2,62956E-004	10	...........	0
	85	17,2	-1,69469E-001	-2,05226E-005	0,00000E+000	-1,70000E-001	-2,61306E-004	10	...........	0
	90	18,2	-1,79455E-001	-2,04499E-005	0,00000E+000	-1,80000E-001	-2,59406E-004	10	...........	0
	95	19,2	-1,89447E-001	-2,05728E-005	0,00000E+000	-1,90000E-001	-2,60506E-004	10	...........	0
	100	20,2	-1,99439E-001	-2,14459E-005	0,00000E+000	-2,00000E-001	-2,65156E-004	10	...........	0
	105	21,2	-2,09434E-001	-2,20999E-005	0,00000E+000	-2,10000E-001	-2,68706E-004	10	...........	0
	110	22,2	-2,19421E-001	-2,24359E-005	0,00000E+000	-2,20000E-001	-2,63306E-004	10	...........	0
	115	23,2	-2,29416E-001	-2,33817E-005	0,00000E+000	-2,30000E-001	-2,61106E-004	10	...........	0
	120	24,2	-2,39406E-001	-2,45473E-005	0,00000E+000	-2,40000E-001	-2,60956E-004	10	...........	0
	125	25,2	-2,49399E-001	-2,59741E-005	0,00000E+000	-2,50000E-001	-2,55456E-004	10	...........	0
	130	26,2	-2,59388E-001	-2,66055E-005	0,00000E+000	-2,60000E-001	-2,56956E-004	10	...........	0
	135	27,2	-2,69362E-001	-2,80924E-005	0,00000E+000	-2,70000E-001	-2,62806E-004	10	...........	0
	140	28,2	-2,79354E-001	-2,93703E-005	0,00000E+000	-2,80000E-001	-2,64856E-004	10	...........	0
	145	29,2	-2,89319E-001	-3,10012E-005	0,00000E+000	-2,90000E-001	-2,73456E-004	10	...........	0
	150	30,2	-2,99327E-001	-3,24305E-005	0,00000E+000	-3,00000E-001	-2,76556E-004	10	...........	0
	155	31,2	-3,09284E-001	-3,32194E-005	0,00000E+000	-3,10000E-001	-2,74806E-004	10	...........	0
	160	32,2	-3,19297E-001	-3,67585E-005	0,00000E+000	-3,20000E-001	-2,62806E-004	10	...........	0
	165	33,2	-3,29296E-001	-3,88874E-005	0,00000E+000	-3,30000E-001	-2,63356E-004	10	...........	0
	170	34,2	-3,39214E-001	-4,16202E-005	0,00000E+000	-3,40000E-001	-2,58456E-004	10	...........	0
	175	35,2	-3,49286E-001	-4,38935E-005	0,00000E+000	-3,50000E-001	-2,59606E-004	10	...........	0
	180	36,2	-3,59273E-001	-4,64733E-005	0,00000E+000	-3,60000E-001	-2,67756E-004	10	...........	0
	185	37,2	-3,69262E-001	-4,86604E-005	0,00000E+000	-3,70000E-001	-2,71606E-004	10	...........	0
	190	38,2	-3,79269E-001	-5,16514E-005	0,00000E+000	-3,80000E-001	-2,64906E-004	10	...........	0
	195	39,2	-3,89262E-001	-5,48911E-005	0,00000E+000	-3,90000E-001	-2,65806E-004	10	...........	0
	200	40,2	-3,99253E-001	-5,76364E-005	0,00000E+000	-4,00000E-001	-2,60656E-004	10	...........	0
	205	41,2	-4,09266E-001	-6,03621E-005	0,00000E+000	-4,10000E-001	-2,65506E-004	10	...........	0
	210	42,2	-4,18979E-001	-6,32076E-005	0,00000E+000	-4,20000E-001	-2,72856E-004	10	...........	0
	215	43,2	-4,29207E-001	-6,50151E-005	0,00000E+000	-4,30000E-001	-2,72956E-004	10	...........	0
	220	44,2	-4,39206E-001	-6,89228E-005	0,00000E+000	-4,40000E-001	-2,66006E-004	10	...........	0
	225	45,2	-4,49207E-001	-7,23141E-005	0,00000E+000	-4,50000E-001	-2,62606E-004	10	...........	0
	230	46,2	-4,59115E-001	-7,62544E-005	0,00000E+000	-4,60000E-001	-2,64506E-004	10	...........	0
	235	47,2	-4,69144E-001	-8,02033E-005	0,00000E+000	-4,70000E-001	-2,78306E-004	10	...........	0
	240	48,2	-4,79188E-001	-8,50720E-005	0,00000E+000	-4,80000E-001	-2,69656E-004	10	...........	0
	245	49,2	-4,89190E-001	-9,05871E-005	0,00000E+000	-4,90000E-001	-2,56956E-004	10	...........	0
	250	50,2	-4,99162E-001	-9,66548E-005	0,00000E+000	-5,00000E-001	-2,79806E-004	10	...........	0
	255	51,2	-5,09165E-001	-1,03830E-004	0,00000E+000	-5,10000E-001	-2,64556E-004	10	...........	0
	260	52,2	-5,19111E-001	-1,11525E-004	0,00000E+000	-5,20000E-001	-2,71756E-004	10	...........	0
	265	53,2	-5,29133E-001	-1,20258E-004	0,00000E+000	-5,30000E-001	-2,63906E-004	10	...........	0
	270	54,2	-5,39025E-001	-1,29304E-004	0,00000E+000	-5,40000E-001	-2,67356E-004	10	...........	0
	275	55,2	-5,49095E-001	-1,39886E-004	0,00000E+000	-5,50000E-001	-2,58906E-004	10	...........	0
	280	56,2	-5,59118E-001	-1,50067E-004	0,00000E+000	-5,60000E-001	-2,59406E-004	10	...........	0
	285	57,2	-5,69097E-001	-1,61061E-004	0,00000E+000	-5,70000E-001	-2,72756E-004	10	...........	0
	290	58,2	-5,79059E-001	-1,74923E-004	0,00000E+000	-5,80000E-001	-2,67906E-004	10	...........	0
	295	59,2	-5,89094E-001	-1,87415E-004	0,00000E+000	-5,90000E-001	-2,64556E-004	10	...........	0
	300	60,2	-5,99051E-001	-2,00511E-004	0,00000E+000	-6,00000E-001	-2,72806E-004	10	...........	0
	305	61,2	-6,09083E-001	-2,12937E-004	0,00000E+000	-6,10000E-001	-2,74256E-004	10	...........	0
	310	62,2	-6,18959E-001	-2,25338E-004	0,00000E+000	-6,20000E-001	-2,86906E-004	10	...........	0
	315	63,2	-6,29054E-001	-2,40914E-004	0,00000E+000	-6,30000E-001	-2,91456E-004	10	...........	0
	320	64,2	-6,39045E-001	-2,55435E-004	0,00000E+000	-6,40000E-001	-2,84956E-004	10	...........	0
	325	65,2	-6,49040E-001	-2,69364E-004	0,00000E+000	-6,50000E-001	-2,79906E-004	10	...........	0
	330	66,2	-6,58990E-001	-2,83758E-004	0,00000E+000	-6,60000E-001	-2,74106E-004	10	...........	0
	335	67,2	-6,69027E-001	-2,97910E-004	0,00000E+000	-6,70000E-001	-2,74006E-004	10	...........	0
	340	68,2	-6,79030E-001	-3,12634E-004	0,00000E+000	-6,80000E-001	-2,78456E-004	10	...........	0
	345	69,2	-6,89032E-001	-3,26801E-004	0,00000E+000	-6,90000E-001	-2,79656E-004	10	...........	0
	350	70,2	-6,98954E-001	-3,42206E-004	0,00000E+000	-7,00000E-001	-2,78806E-004	10	...........	0
	355	71,2	-7,09015E-001	-3,55546E-004	0,00000E+000	-7,10000E-001	-2,81106E-004	10	...........	0
	360	72,2	-7,18954E-001	-3,69949E-004	0,00000E+000	-7,20000E-001	-2,84456E-004	10	...........	0
	365	73,2	-7,28978E-001	-3,84860E-004	0,00000E+000	-7,30000E-001	-2,83106E-004	10	...........	0
	370	74,2	-7,38941E-001	-3,99375E-004	0,00000E+000	-7,40000E-001	-2,75106E-004	10	...........	0
	375	75,2	-7,48946E-001	-4,13165E-004	0,00000E+000	-7,50000E-001	-2,64206E-004	10	...........	0
	380	76,2	-7,58959E-001	-4,27109E-004	0,00000E+000	-7,60000E-001	-2,61006E-004	10	...........	0
	385	77,2	-7,68952E-001	-4,41263E-004	0,00000E+000	-7,70000E-001	-2,66006E-004	10	...........	0
	390	78,2	-7,78923E-001	-4,55640E-004	0,00000E+000	-7,80000E-001	-2,70356E-004	10	...........	0
	395	79,2	-7,88935E-001	-4,66271E-004	0,00000E+000	-7,90000E-001	-2,84256E-004	10	...........	0
	400	80,2	-7,98908E-001	-4,80992E-004	0,00000E+000	-8,00000E-001	-2,84956E-004	10	...........	0
	405	81,2	-8,08930E-001	-4,93605E-004	0,00000E+000	-8,10000E-001	-2,67856E-004	10	...........	0
	410	82,2	-8,18921E-001	-5,05697E-004	0,00000E+000	-8,20000E-001	-2,72256E-004	10	...........	0
	415	83,2	-8,28607E-001	-5,15916E-004	0,00000E+000	-8,30000E-001	-2,78006E-004	10	...........	0
	420	84,2	-8,38884E-001	-5,30206E-004	0,00000E+000	-8,40000E-001	-2,87356E-004	10	...........	0
	425	85,2	-8,48880E-001	-5,42519E-004	0,00000E+000	-8,50000E-001	-2,76006E-004	10	...........	0
	430	86,2	-8,58881E-001	-5,54253E-004	0,00000E+000	-8,60000E-001	-2,76606E-004	10	...........	0
	435	87,2	-8,68837E-001	-5,65869E-004	0,00000E+000	-8,70000E-001	-2,76006E-004	10	...........	0
	440	88,2	-8,78818E-001	-5,78804E-004	0,00000E+000	-8,80000E-001	-2,84906E-004	10	...........	0
	445	89,2	-8,88876E-001	-5,88824E-004	0,00000E+000	-8,90000E-001	-2,72206E-004	10	...........	0
	450	90,2	-8,98862E-001	-6,02072E-004	0,00000E+000	-9,00000E-001	-2,74456E-004	10	...........	0
	455	91,2	-9,08853E-001	-6,13513E-004	0,00000E+000	-9,10000E-001	-2,79306E-004	10	...........	0
	460	92,2	-9,18843E-001	-6,23751E-004	0,00000E+000	-9,20000E-001	-2,75856E-004	10	...........	0
	465	93,2	-9,28823E-001	-6,36594E-004	0,00000E+000	-9,30000E-001	-2,65206E-004	10	...........	0
	470	94,2	-9,38817E-001	-6,47759E-004	0,00000E+000	-9,40000E-001	-2,74906E-004	10	...........	0
	475	95,2	-9,48735E-001	-6,58561E-004	0,00000E+000	-9,50000E-001	-2,87306E-004	10	...........	0
	480	96,2	-9,58807E-001	-6,72793E-004	0,00000E+000	-9,60000E-001	-2,66956E-004	10	...........	0
	485	97,2	-9,68812E-001	-6,85595E-004	0,00000E+000	-9,70000E-001	-2,64356E-004	10	...........	0
	490	98,2	-9,78795E-001	-6,97047E-004	0,00000E+000	-9,80000E-001	-2,69706E-004	10	...........	0
	495	99,2	-9,88768E-001	-7,06727E-004	0,00000E+000	-9,90000E-001	-2,84456E-004	10	...........	0
	500	100,2	-9,98761E-001	-7,21436E-004	0,00000E+000	-1,00000E+000	-2,84106E-004	10	...........	0